ARQUIVO DE REFERENCIA
Usuário: PAULO
Amostra: DETECTOR DE SILICIO
Area: 5.1070515574919 mm²
Tipo: Absoluta
Responsividade (A/W)	Comprimento de onda(nm)
0,0612552734943264 201,373482902577
0,065940500436427 203,862729634802
0,0707361979924353 206,62513397642
0,0737916424207157 209,710966380121
0,0780879946173989 213,095156068858
0,0827363980215302 215,001995975238
0,0870508437590921 217,850375680819
0,09342582061523 222,124770326136
0,0979761601687517 227,520821029376
0,105253673261565 231,288032898046
0,113086721704975 235,147127983026
0,11847541460576 240,292588096331
0,124252982251964 244,442822144935
0,131490814248306 248,627708432936
0,135585903404131 252,604939081742
0,135280358961303 257,290983113502
0,129863889292988 260,047479602773
0,126614325720104 263,003231839359
0,121878068628164 265,820632915545
0,116531040878673 269,143918017367
0,11339623425745 272,782231289392
0,110614271166715 275,536364637724
0,107179529143633 280,26178719076
0,105457157404713 284,764064789903
0,104725914678498 289,909524903208
0,108522072907574 295,42251788175
0,110771566773348 299,167022114312
0,110253915721074 302,114503357613
0,108364671224905 306,448503838834
0,106161047667539 311,961496817376
0,104957387741247 317,219258639504
0,105142566191446 322,98748277446
0,104725914678498 328,959891834547
0,105475887401803 333,645935866308
0,107457296818931 339,526461710086
0,109772027446416 345,192593382476
0,110975687372708 350,552447667169
0,113197828775094 355,973557429402
0,117086576229269 361,578433624253
0,122711371654058 366,861718562022
0,127734337115701 370,307339173611
0,130363871108525 375,728448935844
0,134030404422461 380,87390904915
0,138196919551934 386,386902027692
0,142641202356706 391,899895006234
0,146465766921469 395,435573747183
0,14969450101833 398,285101822079
0,152363070992144 402,206304547542
0,15764065682281 405,682377452588
0,165584812336339 409,725238970186
0,171917915333139 414,870699083491
0,179250981961012 419,464859898943
0,185942096628196 424,110066945677
0,193225782336016 427,274933285211
0,199499927262147 431,960977316971
0,205361143439045 436,371371699805
0,211620175055765 441,516831813111
0,219721732251963 447,029824791653
0,226198769407781 452,333992278583
0,232582375618271 457,045095369337
0,240359870526622 461,179840103243
0,245490997037585 466,116474724938
0,252308930885814 471,128286523612
0,257712774750707 476,223628518931
0,264126682889412 481,235440317606
0,271247636019784 486,539607804536
0,278608479415187 492,052600783078
0,284765662884298 497,56559376162
0,290663914751236 501,608455279217
0,295876369896227 506,753915392523
0,302450204878285 512,266908371065
0,307598377945883 516,600908852286
0,312289390853545 520,136587593236
0,317671661332557 524,740318152984
0,322801316555135 528,254588008837
0,32819000945592 533,400048122142
0,334254603699932 538,913041100684
0,340689554844341 544,426034079226
0,346939327538551 549,939027057768
0,352170618756667 555,45202003631
0,357633383037532 560,965013014852
0,363744271894093 566,478005993394
0,36907236093845 571,782173480324
0,374375198375962 576,793985278999
0,379391850935893 582,098152765929
0,385363855954805 587,611145744471
0,390363143729997 591,615810311262
0,395205666278731 597,235824930186
0,400039248133061 603,231292517006
0,405471149338893 608,744285495548
0,411474017432838 614,25727847409
0,416242362525458 619,770271452632
0,421844010643972 625,283264431174
0,426519766511492 630,796257409716
0,430964049316264 636,309250388258
0,435778689021433 641,8222433668
0,441658104815246 647,335236345342
0,446750512195713 652,848229323884
0,451241089613034 658,361222302425
0,4551803402809 664,083040772579
0,461302452073837 668,723607252833
0,466529422461448 674,348901940197
0,470962594559208 679,494362053503
0,47531428813888 685,007355032045
0,480684463194646 690,729173502198
0,485406513674716 696,033340989128
0,49096186718068 701,201771906511
0,497221110949471 707,648823194872
0,50203575065464 713,161816173414
0,506241946880585 717,823970998597
0,509572301425662 723,598305881838
0,512173740422849 727,932306363059
0,516895790902919 734,034795590261
0,520220062312094 740,137284817464
0,524803228954514 745,650277796006
0,529154922534186 751,163270774547
0,532534429250315 756,676263753089
0,535293588158277 761,821723866395
0,5404802682043 767,576954415206
0,544061787775191 773,215242688715
0,547487589103869 778,728235667257
0,551468925783144 784,241228645799
0,555728030137717 789,754221624341
0,55988507419261 795,267214602883
0,564014765784114 800,320791499879
0,567157536964054 805,583193888488
0,569384940839879 810,887361375418
0,572301501430511 816,40035435396
0,575958775821937 821,913347332502
0,579569755600814 827,551635606011
0,582736307099214 832,755566856967
0,58501400203666 838,268559835509
0,588211416610092 843,914273015387
0,591050819513141 849,478312225211
0,594893272354767 855,910137366844
0,597094370751448 861,297835050418
0,600276073213955 866,894358225605
0,602254115750169 872,449116302469
0,604754024827853 877,962109281011
0,607245516703256 883,516867357875
0,608642772282029 888,988095238095
0,610309378333818 894,501088216637
0,612568555426243 900,197847627797
0,613406908773507 905,735899665332
0,613962444124104 910,99830205394
0,612114868223256 916,553060130804
0,610077905271069 922,066053109346
0,608735361507128 927,119630006343
0,606290687736398 930,465622744274
0,603272597226263 934,929703392611
0,597416328738725 937,915907922654
0,5927316700611 942,457059190235
0,586985834303171 945,14422971761
0,58250472796043 949,24077750071
0,575204834988985 951,27178972186
0,569693571590211 953,765762735962
0,562903695082921 957,165441739396
0,555631232311476 960,865829450751
0,548089419067015 963,872916529956
0,539447758057737 967,446152719751
0,533043669988362 970,075033630815
0,524571755891766 973,061238160859
0,51839142511638 974,898902487039
0,511155258946756 977,39523864208
0,50370235670643 980,611151212896
0,495239489380273 982,157676575453
0,487628655077102 984,087224117943
0,4811606363523 985,793626706539
0,474176763373373 988,812646670979
0,468224598902697 990,387787521991
0,461624759055862 991,698041756895
0,453907659295897 992,816129667301
0,446310713376491 994,768648013868
0,439336760671682 996,819612663623
0,432093531786441 999,508115143163
0,42455698101542 1001,21569930222
0,417723790127048 1001,94354671128
0,412112670933954 1004,50078745324
0,406313645621181 1005,46623794212
0,40061099796334 1006,64523043944
0,394908350305499 1007,82422293676
0,389413409627259 1008,64539054278
0,383224832702938 1009,39687370124
0,376386906277276 1010,48842266006
0,369493744544661 1012,43975943615
0,362237941680406 1014,30659303735
0,355185547649906 1015,99575923617
0,35071283095723 1017,25616291532
0,343584521384929 1017,84565916398
0,337842436172534 1018,34417448651
0,32985661550771 1020,05175864558
0,319680217949057 1021,50875221471
0,308954597941518 1023,13759104928
0,299927148494326 1024,97525537546
0,289358088449229 1027,18045256687
0,280533012594039 1028,97873837178
0,270591094241807 1030,36295305903
0,261494904309313 1032,58114383659
0,251248363398312 1034,5311098716
0,240970959412278 1036,23094937331
0,23174289997737 1037,78785942744
0,222977786667959 1040,13598606645
0,214305262583648 1042,6932268084
0,206944419188245 1043,81131471881
0,198166642420715 1045,8482347923
0,188556517311609 1047,8851548658
0,180695373872563 1049,72281919198
0,172917878964213 1051,56048351816
0,166251454757055 1053,39814784434
0,158159368635437 1055,23581217052
0,147918788187372 1057,59379716516
0,140627386710794 1059,43146149134
0,132125711791845 1061,53164929269
0,125327017263117 1064,74026954476
0,117989321173989 1066,78211879607
0,11146178080448 1068,61978312225
0,105781750072737 1071,57553535883
0,100476069246435 1072,95378360347
0,0932543218407526 1075,77118467965
0,0869210066918826 1077,71622153684
0,0785324228978761 1081,3915501892
0,0704771603142275 1085,06687884156
0,0631743956145688 1088,75056051359
0,0554777058481233 1092,41753614629
0,0490334957812046 1095,38076987225
0,042552250024246 1099,86007666732
0,0369783786732617 1104,91365356431
0,02969076493771 1109,71663987138
0,0254232433808555 1114,56139127676
0,0208769002764039 1117,90738401469
0,0168124454466105 1121,91204858149
0,0125764883983126 1124,66854507076
0,0106005501626683 1129,51329647614
0,0084404839050971 1134,52510827482
0,00699798758607317 1139,82927576175
0,00570173843468146 1143,04518833256

