ARQUIVO DE REFERENCIA
AMOSTRA: IGA-010-E-LN6N (22)
Usu√°rio: Paulo Henrique Diniz

Responsividade (A/W)	Comprimento de onda(nm)

0.052477 803.220098
0.057238 806.051636
0.062565 808.250982
0.067475 811.654791
0.072836 815.398774
0.077658 819.139982
0.082753 822.544742
0.088032 825.950454
0.093016 829.692494
0.09797 832.855208
0.104316 836.16989
0.10981 839.689324
0.115151 842.500097
0.121541 846.056328
0.128537 849.065468
0.133787 852.152486
0.14124 854.604114
0.147174 856.999651
0.152602 859.971751
0.157959 861.616217
0.163621 864.291895
0.170438 867.013746
0.177604 869.560425
0.184993 872.204784
0.193088 874.804518
0.199036 877.240349
0.205736 879.414596
0.211559 881.318881
0.217827 883.531125
0.223668 885.813569
0.229214 887.491182
0.235812 889.552294
0.242465 891.822833
0.248825 893.673566
0.25565 895.397999
0.261756 897.118722
0.268477 899.433852
0.275451 900.905664
0.28247 902.964925
0.288979 904.804364
0.296293 906.418697
0.302801 907.803643
0.308582 909.52269
0.315097 911.0766
0.321723 912.523285
0.328887 913.979182
0.336121 915.745942
0.342725 917.131384
0.348437 918.512226
0.355664 919.900879
0.362478 920.90933
0.368625 922.670488
0.376084 924.060336
0.382731 925.783851
0.38943 927.21
0.39528 928.591556
0.402595 930.447212
0.408533 931.322445
0.413555 932.361883
0.419361 933.517978
0.425578 935.12666
0.431061 936.281089
0.436837 937.437025
0.443086 938.933254
0.44968 940.431262
0.456217 941.703741
0.462206 943.08601
0.46861 944.470421
0.474645 945.852928
0.480477 948.247942
0.486265 949.629174
0.492202 950.335476
0.499059 951.72222
0.504704 953.400348
0.511198 955.12307
0.516958 957.220086
0.522475 958.559699
0.527793 959.938513
0.534314 961.774813
0.540504 963.084903
0.54649 964.805007
0.551882 966.160905
0.558154 968.24363
0.563986 969.962942
0.570549 971.686021
0.576551 973.40621
0.582354 975.125371
0.588888 977.186152
0.59517 979.623706
0.601686 981.941796
0.608227 983.326917
0.613783 985.044801
0.62017 987.274646
0.626543 989.92092
0.6329 992.656486
0.638687 995.245234
0.644962 997.316198
0.649799 1001.527694
0.656059 1005.420369
0.660584 1009.129333
0.664654 1013.204508
0.668546 1017.395481
0.671257 1021.346942
0.673697 1025.530434
0.675415 1029.323205
0.677304 1033.387141
0.6807 1037.458848
0.682897 1041.52437
0.685663 1045.592826
0.68812 1049.707958
0.691983 1054.225571
0.695702 1059.158575
0.698822 1063.228854
0.702326 1067.301117
0.705754 1071.372983
0.709181 1075.444849
0.712762 1079.517508
0.715805 1083.587391
0.719079 1087.658464
0.722506 1091.73033
0.725395 1095.79942
0.727273 1099.815037
0.730682 1104.539595
0.734435 1109.360014
0.736477 1113.424743
0.738597 1117.489868
0.740486 1121.553803
0.742683 1125.619325
0.74511 1129.686036
0.747153 1133.750765
0.749811 1137.818665
0.752161 1141.88498
0.755742 1145.957639
0.758368 1149.977108
0.760864 1153.159334
0.764733 1156.179705
0.769244 1159.541231
0.773979 1163.619838
0.778794 1167.361006
0.783839 1171.103364
0.78919 1175.185143
0.794791 1179.183752
0.799701 1182.454837
0.804465 1186.911669
0.809521 1190.831037
0.814179 1194.909247
0.818132 1198.645974
0.822808 1202.386428
0.826313 1206.458691
0.829509 1210.529367
0.83286 1214.600837
0.836133 1218.67191
0.839638 1222.744172
0.84268 1226.814055
0.845723 1230.883939
0.849073 1234.955408
0.852116 1239.025291
0.855544 1243.097157
0.858048 1247.164265
0.862014 1251.238906
0.86521 1255.309583
0.86833 1259.379863
0.872296 1263.454504
0.875877 1267.527163
0.879766 1271.601408
0.883116 1275.672878
0.886621 1279.74514
0.890048 1283.817006
0.893091 1287.886889
0.895826 1291.955186
0.898253 1296.021898
0.90045 1300.087419
0.902569 1304.152544
0.903843 1308.213308
0.905116 1312.274071
0.906236 1316.334041
0.907125 1320.392822
0.90786 1324.45081
0.908672 1328.509194
0.908945 1332.564803
0.909295 1336.620808
0.909723 1340.677209
0.910073 1344.733214
0.910577 1348.790013
0.911081 1352.846811
0.911586 1356.903609
0.912167 1360.960804
0.912671 1365.017602
0.91356 1369.076382
0.913833 1373.131991
0.914107 1377.1876
0.914073 1381.241622
0.914038 1385.295645
0.914466 1389.352046
0.915277 1393.41043
0.916012 1397.468418
0.916286 1401.524027
0.917175 1405.582808
0.917987 1409.641192
0.918722 1413.699179
0.920072 1417.760339
0.920961 1421.81912
0.921927 1425.878297
0.922892 1429.937475
0.923935 1433.997048
0.924516 1438.054243
0.925097 1442.111438
0.925525 1446.167839
0.925696 1450.110308
0.927242 1454.622939
0.926982 1458.337951
0.926388 1462.389084
0.926738 1466.445089
0.926704 1470.499112
0.926669 1474.553134
0.927051 1478.547229
0.927216 1482.664351
0.927797 1486.721546
0.928456 1490.779137
0.928874 1494.306913
0.929581 1498.724411
0.933045 1502.965393
0.935703 1507.033293
0.938977 1511.104366
0.94202 1515.174249
0.945447 1519.246115
0.949028 1523.318774
0.953225 1527.394605
0.957037 1531.468454
0.960618 1535.541113
0.964122 1539.613375
0.967088 1543.682862
0.969438 1547.749177
0.97302 1551.821836
0.976216 1555.892512
0.979951 1559.965964
0.983763 1564.039813
0.987794 1568.259581
0.991272 1572.186915
0.993892 1576.254617
0.997048 1579.649385
0.998444 1583.710783
0.998948 1587.767581
0.999068 1591.822397
0.997492 1596.206324
0.99391 1601.323179
0.991107 1605.29536
0.986996 1609.328367
0.983116 1613.362564
0.978389 1617.392398
0.973527 1621.083684
0.967775 1624.432535
0.962208 1627.782338
0.956088 1630.472391
0.95071 1633.804369
0.944225 1636.473743
0.937398 1638.803498
0.931317 1641.137104
0.92527 1642.795182
0.919068 1644.492687
0.913068 1646.368189
0.906798 1647.727494
0.900725 1649.803735
0.893021 1651.115424
0.886155 1652.471649
0.87854 1653.365504
0.872125 1654.305764
0.86571 1655.286246
0.859038 1656.461248
0.852356 1657.960437
0.845604 1658.561106
0.839531 1659.921427
0.833572 1660.625515
0.827624 1661.211449
0.82154 1661.968406
0.815586 1663.063878
0.808524 1663.815794
0.801942 1664.948253
0.793637 1666.104006
0.787251 1666.746792
0.781953 1667.395181
0.775832 1668.039328
0.769939 1669.0225
0.762882 1669.661823
0.754931 1670.904668
0.74647 1671.536756
0.738776 1672.578216
0.732396 1673.727807
0.726444 1674.372827
0.719803 1675.52107
0.71521 1675.875467
0.709821 1676.145312
0.703728 1676.722034
0.698343 1677.059476
0.692172 1678.08144
0.684638 1679.056153
0.67974 1679.706605
0.67356 1680.310227
0.667061 1680.992652
0.659405 1682.304586
0.652003 1683.279979
0.644636 1683.850135
0.637476 1684.488929
0.62977 1685.53033
0.62165 1686.502023
0.614234 1687.477343
0.607479 1688.793923
0.599298 1689.298752
0.591778 1690.289623
0.585323 1691.38252
0.578747 1692.02432
0.572238 1692.666471
0.565371 1693.64462
0.558288 1694.283811
0.552038 1695.224923
0.544485 1696.328242
0.538609 1696.852991
0.532081 1697.824853
0.525055 1698.802185
0.518517 1699.371786
0.512019 1700.12661
0.505197 1700.834715
0.498937 1701.072729
0.494028 1701.723125
0.488033 1703.71932
0.481283 1704.022375
0.474456 1704.284813
0.467886 1705.304722
0.461371 1707.000606
0.455191 1707.604233
0.447925 1707.904625
0.441962 1708.88744
0.434883 1709.317504
0.428271 1710.168268
0.421801 1711.148466
0.414635 1712.503151
0.408157 1713.105237
0.400259 1713.740224
0.393376 1714.380446
0.387825 1715.365383
0.381362 1716.007765
0.375253 1716.651978
0.368516 1717.630801
0.363959 1717.945162
0.358822 1718.554159
0.352875 1719.577273
0.345885 1720.104328
0.339223 1721.196152
0.331091 1722.100218
0.324577 1722.80991
0.318103 1723.074163
0.310815 1724.6985
0.304647 1724.822756
0.297012 1726.38417
0.289545 1727.359232
0.282706 1728.466229
0.275319 1729.650852
0.268295 1730.628195
0.261503 1731.43781
0.255223 1732.250063
0.249077 1733.164362
0.242674 1733.874625
0.236342 1734.855537
0.230174 1735.724675
0.224013 1736.481235
0.217902 1737.085213
0.211262 1737.633366
0.204965 1738.667553
0.199101 1739.686089
0.192122 1740.74912
0.185326 1742.065488
0.179216 1742.939752
0.172612 1743.817907
0.166444 1744.630734
0.160093 1745.949396
0.154103 1746.93609
0.148455 1748.592208
0.142572 1749.237585
0.135976 1750.554983
0.129392 1752.290738
0.123028 1753.416273
0.117632 1754.739858
0.111909 1756.106806
0.106682 1757.83668
0.100858 1759.428342
0.095271 1760.818512
0.090318 1762.482232
0.08444 1764.479028
0.079133 1766.985551
0.072697 1769.486246
0.06725 1772.160973
0.061793 1774.45757
0.056804 1777.094428
0.052049 1779.735649
0.04677 1782.086328
0.041526 1784.866669
0.03608 1787.541396
0.03098 1790.217908
0.025434 1792.68941
0.019857 1795.566172
0.015893 1798.393333

