ARQUIVO DE REFERENCIA
AMOSTRA: IGA-010-E-LN6N (-196)
Usuário: Paulo Henrique Diniz
Área: 0.7853981634 mm²
Temperatura: 77K
Responsividade máxima = 0.94073 * 10^10 (V/W) em ~1481 nm
Tipo: Absoluta
Método para achar os pontos abaixo: Obtenção da curva da imagem do data sheet.
Responsividade(A/W)	Comprimento de onda(nm)
206162000 800,544929
209671000 804,665476
215303000 807,619325
221366000 811,164216
227945000 814,283825
233303000 817,46471
239586000 820,42513
245354000 823,758279
251695000 827,131926
258529000 830,433036
264255000, 833,277969
269674000 835,960437
275002000 838,232191
280746000 841,358753
287414000 844,208544
293334000 846,941857
299831000 849,678143
305347000 851,886517
311403000 854,805546
318537000 857,207269
324707000 859,314434
331286000 862,002883
337632000 864,400542
344920000 866,803058
351438000 869,201608
357267000 871,258755
363974000 873,320422
369926000 875,378204
376906000 877,779133
383071000 880,17586
388806000 881,942935
394278000 883,949979
400044000 886,368787
406099000 888,03912
411238000 889,780848
417402000 892,177575
424897000 894,87074
431143000 897,026564
436725000 899,625414
444199000 902,153572
452723000 904,606699
459819000 906,923764
465987000 909,27224
471985000 911,040675
477537000 913,096394
484531000 915,25607
491696000 917,802749
498222000 919,689732
504717000 921,924067
511601000 924,083176
517661000, 926,141512
523413000 928,198263
529703000, 930,354313
536200000 932,994075
544024000 935,737202
550777000 938,069395
556899000 939,857769
563368000 942,931764
568696000 945,155251
575015000 948,397398
581072000 950,79357
586223000 953,45132
591388000 956,03918
596726000 958,798375
602524000 962,575328
608098000 966,136126
613467000 969,880149
618331000 973,283719
623315000 977,02576
628127000 981,104763
632397000 985,518826
637237000 989,413689
641347000 993,605787
645869000 997,413016
650787000 1001,735496
654846000 1005,414117
658806000 1009,952799
662524000 1013,909451
666048000 1017,981814
668925000 1022,235126
671617000 1025,519709
674283000 1029,317371
676996000 1033,385555
679001000 1037,480801
681891000 1041,350258
685355000 1045,591239
687781000 1049,770562
691133000 1053,72942
694560000 1057,801286
697680000 1061,871566
701261000 1065,944225
704457000 1070,014901
708039000 1074,08756
711466000 1078,159426
714663000 1082,230102
718167000 1086,302365
721287000 1090,372645
724329000 1094,442528
727372000 1098,512411
730528000 1102,245026
732386000 1105,970956
734737000 1110,037271
736626000 1114,101206
738976000 1118,167521
740788000 1122,23106
742985000 1126,296582
745181000 1130,362103
747378000 1134,427625
750267000 1138,496715
752771000 1142,563823
756275000 1146,636085
760186000 1150,372594
763976000 1154,784179
768250000 1158,860406
772831000 1162,93822
778181000 1167,019999
783839000 1171,103364
789113000 1175,184746
793540000 1179,261767
798373000 1182,74562
802797000 1185,661059
807686000 1189,47018
812498000 1193,549183
816385000 1197,864739
820829000 1200,937837
825016000 1205,100609
828521000 1209,172872
831717000 1213,243548
835145000 1217,315414
838264000 1221,385694
841922000 1225,458749
844581000 1229,52665
847700000 1233,59693
851051000 1237,668399
854324000 1241,739472
857367000 1245,809355
860256000 1249,830183
863991000 1253,951898
867111000 1258,022177
870846000 1262,095629
874504000 1266,168685
878393000 1270,24293
882051000 1274,315985
885478000 1278,387851
888982000 1282,460114
891871000 1286,529204
894760000 1290,598294
897572000 1294,666988
899304000 1299,067966
902042000 1302,798428
903085000 1306,858002
904666000 1310,920351
905632000 1314,979528
906598000 1319,038706
907486000 1323,097486
908298000 1327,155871
908495000 1331,211083
908845000 1335,267088
909196000 1339,323093
909854000 1343,380684
910070000 1347,67732
910436000 1351,25076
911212000 1355,550285
911947000 1359,608273
912452000 1363,665071
912802000 1367,721076
912922000 1371,775892
913657000 1375,83388
913622000 1379,887902
913665000 1383,942321
914015000 1387,998326
914289000 1392,053935
915332000 1396,113509
914888000 1400,052805
916494000 1404,227898
917383000 1408,286679
918271000 1412,345459
918854000 1416,233737
919590000 1420,122807
921354000 1424,765265
921477000 1428,609492
922867000 1432,977991
924020000 1436,941607
924649000 1440,516407
925305000 1444,815309
925684000 1449,141741
925929000 1452,926923
927626000 1456,989867
931531000 1461,015935
934991000 1464,985634
937331000 1469,202491
938989000 1473,265237
939878000 1477,324017
940720000 1481,481374
939655000 1485,431269
937621000 1489,474982
933587000 1493,508386
928856000 1496,454585
924565000 1498,276244
918845000 1499,21607
912301000 1499,817815
905914000 1500,122739
901574000 1500,269293
894428000 1500,570311
888363000 1501,423894
882429000 1502,704482
874080000 1503,843923
866415000 1504,142265
859947000 1504,953545
854446000 1505,378015
848571000 1505,90846
842167000 1506,044372
835851000 1506,714008
829427000 1507,188523
823049000 1507,691385
816296000 1508,377322
809296000 1508,746657
802577000 1509,612959
790830000 1510,061555
796699000 1510,091803
784573000 1510,308471
777921000 1511,017449
771160000 1511,388019
764859000 1511,896104
759185000 1512,317321
752890000 1512,645244
747254000 1513,156755
741782000 1513,466397
735062000 1513,90475
728226000 1514,54521
723313000 1515,100669
713195000 1515,346141
719080000 1515,376475
708092000 1515,657687
702227000 1515,965307
695534000 1516,099728
688237000 1516,52867
680985000 1517,207209
675136000 1517,514908
668606000 1518,269565
656511000 1518,432456
662050000 1518,461005
651082000 1519,080172
644559000 1519,231555
636887000 1519,344849
630234000 1520,081174
623028000 1520,75995
616008000 1521,264324
608546000 1522,070489
602119000 1522,168745
594374000 1522,774488
587292000 1523,481257
580001000 1523,612596
574555000 1523,981096
562532000 1524,367174
567916000 1524,39493
556372000 1525,011123
549934000 1525,113076
543751000 1525,621764
531595000, 1525,784337
537363000 1525,926688
525185000 1526,026405
519034000 1526,805539
512877000 1527,320796
505608000, 1527,934893
492356000 1528,568847
498371000 1528,57329
486482000 1529,254489
480638000 1529,35064
474443000 1529,656555
468632000 1529,964453
462321000 1530,269773
456318000 1530,57668
449948000 1530,678982
443848000 1531,525949
438046000 1531,969032
431842000 1532,139763
425609000 1532,276562
418841000 1533,086296
411984000 1533,388801
405739000 1533,734682
399149000 1534,151179
392033000 1534,704931
385200000 1534,939988
379889000 1535,250464
372470000 1535,955492
366111000 1536,192992
359617000 1536,29466
353220000 1536,802245
346756000 1537,106773
339721000 1537,678645
332112000 1538,38269
324994000 1539,089271
318290000 1539,324992
310361000 1540,365241
304028000 1540,980947
297791000 1541,6245
284972000 1542,193901
291070000 1542,197987
279015000 1542,503513
272868000 1542,9949
265466000, 1543,444752
258915000 1543,883977
252648000, 1544,527371
244816000 1545,027561
236827000 1545,999928
230847000 1546,306954
225970000 1547,536687
220142000 1548,182347
208650000 1548,557483
213906000 1548,825899
201838000 1549,350913
195761000 1550,180299
189517000 1551,077199
183081000 1552,03192
177337000 1553,463826
170869000 1554,106189
164982000 1554,41369
159504000 1555,399003
152333000 1556,30802
145648000 1557,933855
139009000 1558,963963
132427000, 1560,665029
125477000 1561,980604
119404000 1563,300699
113541000 1565,184963
107179000 1566,994258
100721000 1568,513467
93742000 1570,330843
88088000 1571,786626
81914000 1573,878428
75048000 1575,910358
69507000 1577,9089
64029000 1579,907758
58066000 1582,241973
52052000 1584,865507
46661000 1586,91308
41401000 1588,961334
35841000 1591,538942
30548000 1593,635287
25447000 1596,408323
20644000 1599,211852
15138000 1602,96739
10104000 1606,995639
5759000 1610,62202
4788000 1614,400937
4754000 1618,454959
4899000 1622,509907
7246000 1626,576203
8608000 1630,589157
10870000 1634,703281
12163000 1638,493394
14032000 1642,827979
14402000 1647,125409
14458000 1650,668294
14070000 1655,232094
13164000 1659,040303
12950000 1662,948604
12903000 1667,147356
11957000 1671,148415
11989000 1675,25104
11339000 1679,30189
11151000 1683,355119
10809000 1687,407556
10467000 1691,459992
10433000 1695,514015
10394000 1699,68063
9980000 1703,620077
9945000 1707,6741
9834000 1711,727726
9800000 1715,781748
9766000 1719,835771
9972000 1724,035826
9327000 1728,144616
9531000 1731,997158
10223000 1735,910133
10210000 1740,109055
9483000 1744,159509
10331000 1748,555927
9823000 1752,028339
9919000 1756,324352
9654000 1760,377185
9620000 1764,431208
9431000 1768,484437
9076000 1772,354914
9901000 1776,595258
9867000 1780,64928
9848000 1784,703382
9999000 1788,758356
9519000 1792,742512
9038000 1796,861802
